'sample interval','ABP'
'0.008 sec','mmHg'
150000,59.609
150001,59.296
150002,58.983
150003,58.670
150004,58.357
150005,58.201
150006,57.888
150007,57.731
150008,57.418
150009,57.106
150010,56.793
150011,56.480
150012,56.010
150013,55.697
150014,55.228
150015,54.915
150016,54.602
150017,54.133
150018,53.664
150019,53.038
150020,52.568
150021,52.099
150022,51.473
150023,51.004
150024,50.691
150025,50.378
150026,50.065
150027,50.065
150028,50.065
150029,50.065
150030,50.378
150031,50.847
150032,51.943
150033,53.820
150034,56.480
150035,59.765
150036,62.894
150037,65.711
150038,67.744
150039,69.622
150040,71.186
150041,73.064
150042,75.411
150043,77.914
150044,80.574
150045,83.077
150046,85.424
150047,87.301
150048,89.022
150049,90.274
150050,91.369
150051,92.151
150052,92.464
150053,92.621
150054,92.151
150055,91.369
150056,90.274
150057,88.709
150058,86.675
150059,84.485
150060,81.982
150061,79.478
150062,77.445
150063,75.724
150064,74.628
150065,73.690
150066,72.751
150067,71.656
150068,70.404
150069,69.153
150070,68.057
150071,67.119
150072,66.493
150073,65.867
150074,65.398
150075,64.928
150076,64.302
150077,63.677
150078,63.051
150079,62.581
150080,62.112
150081,61.799
150082,61.643
150083,61.486
150084,61.173
150085,61.017
150086,60.860
150087,60.704
150088,60.704
150089,60.548
150090,60.548
150091,60.548
150092,60.548
150093,60.548
150094,60.391
150095,60.235
150096,59.922
150097,59.609
150098,59.452
150099,59.139
150100,59.139
150101,59.139
150102,59.609
150103,60.235
150104,61.330
150105,62.738
150106,63.990
150107,65.085
150108,65.711
150109,66.180
150110,66.493
150111,66.806
150112,66.962
150113,67.275
150114,67.588
150115,67.744
150116,67.744
150117,67.744
150118,67.432
150119,67.119
150120,66.649
150121,66.023
150122,65.241
150123,64.302
150124,63.364
150125,62.738
150126,62.112
150127,61.799
150128,61.486
150129,61.173
150130,60.860
150131,60.235
150132,59.765
150133,59.296
150134,58.670
150135,58.044
150136,57.575
150137,57.106
150138,56.480
150139,56.010
150140,55.541
150141,55.072
150142,54.602
150143,54.289
150144,54.133
150145,53.820
150146,53.664
150147,53.351
150148,53.194
150149,52.881
150150,52.568
150151,52.256
150152,52.099
150153,51.786
150154,51.630
150155,51.317
150156,51.160
150157,51.004
150158,50.847
150159,50.691
150160,50.535
150161,50.378
150162,50.065
150163,49.909
150164,49.752
150165,49.439
150166,49.283
150167,49.126
150168,48.814
150169,48.657
150170,48.344
150171,48.188
150172,48.031
150173,47.875
150174,47.562
150175,47.562
150176,47.405
150177,47.405
150178,47.405
150179,47.405
150180,47.405
150181,47.249
150182,47.093
150183,46.936
150184,46.623
150185,46.310
150186,45.997
150187,45.684
150188,45.372
150189,45.215
150190,44.902
150191,44.746
150192,44.589
150193,44.433
150194,44.276
150195,43.963
150196,43.963
150197,44.276
150198,45.215
150199,47.249
150200,50.691
150201,55.228
150202,60.548
150203,65.398
150204,69.309
150205,71.812
150206,73.377
150207,74.941
150208,76.819
150209,79.791
150210,83.703
150211,88.709
150212,94.029
150213,99.192
150214,103.416
150215,106.701
150216,109.048
150217,110.769
150218,112.334
150219,113.898
150220,115.306
150221,116.089
150222,116.089
150223,115.463
150224,113.898
150225,111.864
150226,109.518
150227,107.014
150228,104.198
150229,100.913
150230,97.627
150231,94.342
150232,91.369
150233,89.022
150234,87.301
150235,86.049
150236,84.798
150237,83.546
150238,82.138
150239,80.730
150240,79.322
150241,78.070
150242,76.975
150243,76.036
150244,75.254
150245,74.628
150246,74.003
150247,73.220
150248,72.594
150249,71.969
150250,71.499
150251,70.873
150252,70.404
150253,69.935
150254,69.465
150255,68.996
150256,68.527
150257,68.057
150258,67.744
150259,67.588
150260,67.432
150261,67.275
150262,66.962
150263,66.649
150264,66.180
150265,65.554
150266,65.085
150267,64.459
150268,63.990
150269,63.520
150270,63.051
150271,62.581
150272,62.112
150273,61.486
150274,60.860
150275,60.391
150276,59.922
150277,59.609
150278,59.139
150279,58.827
150280,58.514
150281,58.201
150282,58.044
150283,57.888
150284,58.044
150285,58.827
150286,59.922
150287,61.799
150288,63.990
150289,66.180
150290,68.057
150291,69.465
150292,70.248
150293,71.030
150294,71.812
150295,72.751
150296,74.003
150297,75.411
150298,76.975
150299,78.383
150300,79.635
150301,80.730
150302,81.512
150303,81.982
150304,82.295
150305,82.138
150306,81.825
150307,81.043
150308,79.791
150309,78.383
150310,76.506
150311,74.628
150312,72.594
150313,70.873
150314,69.465
150315,68.527
150316,67.901
150317,67.432
150318,66.806
150319,65.867
150320,64.928
150321,63.990
150322,63.051
150323,62.269
150324,61.486
150325,60.860
150326,60.235
150327,59.765
150328,59.296
150329,58.670
150330,58.201
150331,57.731
150332,57.418
150333,57.106
150334,56.636
150335,56.323
150336,55.854
150337,55.541
150338,55.228
150339,55.072
150340,54.759
150341,54.602
150342,54.446
150343,54.289
150344,54.289
150345,54.133
150346,53.977
150347,53.664
150348,53.351
150349,52.881
150350,52.568
150351,52.256
150352,51.943
150353,51.630
150354,51.317
150355,51.004
150356,50.535
150357,50.065
150358,49.752
150359,49.283
150360,48.970
150361,48.657
150362,48.344
150363,48.031
150364,47.875
150365,47.875
150366,47.875
150367,48.344
150368,49.439
150369,51.160
150370,53.977
150371,57.731
150372,61.643
150373,65.241
150374,67.901
150375,70.091
150376,71.812
150377,73.533
150378,75.880
150379,78.696
150380,81.825
150381,85.267
150382,88.553
150383,91.525
150384,94.185
150385,96.375
150386,98.253
150387,99.661
150388,100.443
150389,100.756
150390,100.443
150391,99.661
150392,98.722
150393,97.314
150394,95.750
150395,93.872
150396,91.369
150397,88.553
150398,85.580
150399,82.764
150400,80.574
150401,78.853
150402,77.601
150403,76.506
150404,75.567
150405,74.315
150406,73.064
150407,71.812
150408,70.561
150409,69.465
150410,68.683
150411,67.901
150412,67.119
150413,66.493
150414,65.711
150415,64.928
150416,64.146
150417,63.520
150418,63.051
150419,62.581
150420,62.112
150421,61.799
150422,61.330
150423,60.860
150424,60.548
150425,60.235
150426,59.922
150427,59.609
150428,59.452
150429,59.296
150430,58.983
150431,58.827
150432,58.514
150433,58.201
150434,57.888
150435,57.418
150436,57.106
150437,56.949
150438,56.636
150439,56.323
150440,56.010
150441,55.541
150442,55.072
150443,54.446
150444,53.977
150445,53.351
150446,52.881
150447,52.412
150448,52.099
150449,51.943
150450,51.943
150451,51.786
150452,51.786
150453,51.943
150454,52.099
150455,52.568
150456,53.507
150457,55.228
150458,57.418
150459,60.235
150460,62.738
150461,65.085
150462,66.962
150463,68.527
150464,70.091
150465,71.812
150466,73.690
150467,75.880
150468,78.070
150469,79.948
150470,81.825
150471,83.233
150472,84.485
150473,85.424
150474,86.206
150475,86.675
150476,86.832
150477,86.519
150478,85.737
150479,84.798
150480,83.233
150481,81.512
150482,79.322
150483,77.132
150484,75.098
150485,73.377
150486,72.125
150487,71.186
150488,70.248
150489,69.622
150490,68.683
150491,67.588
150492,66.493
150493,65.554
150494,64.615
150495,64.146
150496,63.677
150497,63.051
150498,62.581
150499,62.112
150500,61.486
150501,61.017
150502,60.704
150503,60.391
150504,60.078
150505,59.922
150506,59.609
150507,59.296
150508,59.139
150509,58.983
150510,58.670
150511,58.670
150512,58.514
150513,58.357
150514,58.357
150515,58.201
150516,58.044
150517,58.044
150518,57.888
150519,57.731
150520,57.575
150521,57.262
150522,57.106
150523,56.793
150524,56.480
150525,56.167
150526,55.697
150527,55.385
150528,54.915
150529,54.602
150530,54.289
150531,53.977
150532,53.664
150533,53.351
150534,53.038
150535,52.881
150536,52.568
150537,52.568
150538,52.725
150539,53.507
150540,54.915
150541,57.106
150542,60.078
150543,63.364
150544,66.493
150545,69.153
150546,71.030
150547,72.594
150548,74.003
150549,75.567
150550,77.757
150551,80.417
150552,83.390
150553,86.206
150554,89.022
150555,91.525
150556,93.559
150557,95.280
150558,96.688
150559,97.627
150560,98.409
150561,98.879
150562,98.879
150563,98.409
150564,97.627
150565,96.219
150566,94.498
150567,92.308
150568,90.117
150569,87.614
150570,85.111
150571,83.077
150572,81.199
150573,79.635
150574,78.540
150575,77.445
150576,76.349
150577,75.254
150578,74.003
150579,72.907
150580,71.969
150581,71.030
150582,70.404
150583,69.622
150584,68.996
150585,68.370
150586,67.744
150587,67.119
150588,66.649
150589,66.180
150590,65.711
150591,65.241
150592,64.928
150593,64.772
150594,64.459
150595,64.146
150596,63.677
150597,63.364
150598,63.207
150599,62.894
150600,62.738
150601,62.581
150602,62.425
150603,62.112
150604,61.799
150605,61.486
150606,61.017
150607,60.548
150608,59.922
150609,59.452
150610,58.983
150611,58.357
150612,58.044
150613,57.575
150614,57.262
150615,56.793
150616,56.480
150617,56.167
150618,55.854
150619,55.541
150620,55.228
150621,55.072
150622,55.228
150623,55.697
150624,56.793
150625,58.514
150626,60.860
150627,63.677
150628,66.336
150629,68.683
150630,70.248
150631,71.343
150632,72.438
150633,73.533
150634,74.941
150635,76.819
150636,78.853
150637,81.199
150638,83.390
150639,85.267
150640,86.832
150641,88.240
150642,89.179
150643,89.804
150644,90.274
150645,90.430
150646,90.117
150647,89.335
150648,88.240
150649,86.832
150650,85.111
150651,83.077
150652,80.887
150653,78.853
150654,76.975
150655,75.567
150656,74.472
150657,73.690
150658,72.907
150659,72.125
150660,71.343
150661,70.248
150662,69.309
150663,68.370
150664,67.744
150665,67.119
150666,66.649
150667,66.023
150668,65.554
150669,64.928
150670,64.302
150671,63.833
150672,63.364
150673,63.051
150674,62.738
150675,62.269
150676,61.956
150677,61.486
150678,61.173
150679,61.017
150680,60.704
150681,60.548
150682,60.235
150683,60.078
150684,59.922
150685,59.765
150686,59.609
150687,59.296
150688,58.983
150689,58.514
150690,58.201
150691,57.731
150692,57.262
150693,56.793
150694,56.323
150695,55.854
150696,55.385
150697,54.915
150698,54.602
150699,54.289
150700,53.820
150701,53.351
150702,53.038
150703,52.568
150704,52.256
150705,52.099
150706,52.412
150707,53.351
150708,55.228
150709,58.044
150710,61.330
150711,64.615
150712,67.588
150713,69.778
150714,71.343
150715,72.594
150716,74.003
150717,75.880
150718,78.383
150719,81.043
150720,84.016
150721,86.988
150722,89.491
150723,91.838
150724,93.872
150725,95.437
150726,96.532
150727,97.314
150728,97.784
150729,97.784
150730,97.158
150731,96.063
150732,94.498
150733,92.621
150734,90.274
150735,87.770
150736,85.111
150737,82.764
150738,80.574
150739,78.696
150740,77.288
150741,76.193
150742,75.098
150743,74.159
150744,73.064
150745,71.969
150746,70.717
150747,69.622
150748,68.527
150749,67.744
150750,66.962
150751,66.180
150752,65.554
150753,65.085
150754,64.615
150755,64.146
150756,63.677
150757,63.207
150758,62.738
150759,62.425
150760,61.956
150761,61.486
150762,61.173
150763,60.860
150764,60.548
150765,60.391
150766,60.235
150767,60.078
150768,59.765
150769,59.609
150770,59.296
150771,58.827
150772,58.357
150773,58.044
150774,57.731
150775,57.418
150776,57.106
150777,56.636
150778,56.167
150779,55.541
150780,55.072
150781,54.602
150782,54.133
150783,53.664
150784,53.194
150785,52.725
150786,52.412
150787,52.099
150788,51.943
150789,51.630
150790,51.630
150791,51.943
150792,52.256
150793,53.194
150794,54.759
150795,57.106
150796,59.922
150797,62.894
150798,65.398
150799,67.432
150800,68.840
150801,70.248
150802,71.969
150803,73.846
150804,76.036
150805,78.383
150806,80.574
150807,82.608
150808,84.329
150809,85.893
150810,86.988
150811,88.083
150812,88.709
150813,89.022
150814,89.022
150815,88.553
150816,87.614
150817,86.362
150818,84.798
150819,82.764
150820,80.417
150821,78.070
150822,75.880
150823,74.003
150824,72.751
150825,71.812
150826,71.030
150827,70.091
150828,68.996
150829,67.744
150830,66.493
150831,65.398
150832,64.459
150833,63.833
150834,63.207
150835,62.581
150836,61.799
150837,61.173
150838,60.548
150839,59.922
150840,59.609
150841,59.296
150842,58.983
150843,58.670
150844,58.357
150845,58.044
150846,57.731
150847,57.418
150848,57.106
150849,56.949
150850,56.793
150851,56.636
150852,56.636
150853,56.480
150854,56.323
150855,56.167
150856,55.854
150857,55.541
150858,55.385
150859,55.072
150860,54.915
150861,54.602
150862,54.446
150863,53.977
150864,53.664
150865,53.038
150866,52.725
150867,52.256
150868,51.786
150869,51.473
150870,51.160
150871,50.847
150872,50.691
150873,50.535
150874,50.535
150875,50.691
150876,50.847
150877,51.317
150878,52.412
150879,54.289
150880,56.949
150881,60.235
150882,63.677
150883,66.649
150884,68.996
150885,70.873
150886,72.751
150887,74.785
150888,77.132
150889,79.948
150890,82.764
150891,85.580
150892,88.240
150893,90.587
150894,92.464
150895,94.185
150896,95.437
150897,96.688
150898,97.471
150899,97.940
150900,97.940
150901,97.314
150902,96.375
150903,94.967
150904,93.090
150905,91.056
150906,88.553
150907,86.049
150908,83.390
150909,81.043
150910,79.322
150911,77.914
150912,76.975
150913,75.880
150914,74.785
150915,73.690
150916,72.438
150917,71.499
150918,70.561
150919,69.935
150920,69.309
150921,68.840
150922,68.214
150923,67.588
150924,66.962
150925,66.336
150926,65.867
150927,65.398
150928,64.928
150929,64.615
150930,64.302
150931,63.990
150932,63.833
150933,63.677
150934,63.364
150935,63.207
150936,63.051
150937,62.738
150938,62.581
150939,62.425
150940,62.269
150941,62.112
150942,62.112
150943,62.269
150944,62.738
150945,63.364
150946,64.146
150947,64.928
150948,65.398
150949,65.554
150950,65.554
150951,65.398
150952,65.241
150953,64.928
150954,64.928
150955,64.928
150956,64.928
150957,64.615
150958,64.302
150959,63.833
150960,63.051
150961,62.112
150962,61.330
150963,60.704
150964,60.235
150965,59.922
150966,59.609
150967,59.452
150968,59.139
150969,58.827
150970,58.357
150971,57.731
150972,57.262
150973,56.636
150974,56.167
150975,55.697
150976,55.228
150977,54.915
150978,54.446
150979,54.133
150980,53.977
150981,53.664
150982,53.507
150983,53.194
150984,53.038
150985,52.725
150986,52.412
150987,52.099
150988,51.786
150989,51.630
150990,51.317
150991,51.160
150992,51.004
150993,50.847
150994,50.691
150995,50.535
150996,50.378
150997,50.378
150998,50.222
150999,50.065
151000,49.752
151001,49.439
151002,49.283
151003,49.126
151004,48.814
151005,48.657
151006,48.501
151007,48.188
151008,48.031
151009,47.875
151010,47.562
151011,47.405
151012,47.249
151013,47.093
151014,46.936
151015,46.623
151016,46.467
151017,46.310
151018,46.154
151019,45.997
151020,45.841
151021,45.841
151022,45.684
151023,45.684
151024,45.684
151025,45.684
151026,45.528
151027,45.372
151028,45.372
151029,45.215
151030,44.902
151031,44.746
151032,44.433
151033,44.120
151034,43.963
151035,43.651
151036,43.494
151037,43.338
151038,43.181
151039,43.181
151040,43.025
151041,42.868
151042,42.868
151043,43.025
151044,43.807
151045,45.684
151046,48.814
151047,53.507
151048,59.139
151049,64.459
151050,68.996
151051,71.969
151052,73.846
151053,75.411
151054,77.288
151055,80.104
151056,84.172
151057,89.335
151058,95.124
151059,100.600
151060,105.293
151061,109.048
151062,112.021
151063,114.524
151064,116.714
151065,118.435
151066,119.531
151067,120.156
151068,120.000
151069,119.374
151070,118.122
151071,116.558
151072,114.524
151073,112.177
151074,109.205
151075,105.763
151076,102.008
151077,97.940
151078,94.342
151079,91.369
151080,89.179
151081,87.614
151082,86.206
151083,84.954
151084,83.703
151085,82.295
151086,80.887
151087,79.478
151088,78.227
151089,77.132
151090,76.349
151091,75.567
151092,74.941
151093,74.315
151094,73.690
151095,73.064
151096,72.438
151097,71.812
151098,71.186
151099,70.717
151100,70.091
151101,69.622
151102,69.309
151103,68.840
151104,68.527
151105,68.370
151106,68.057
151107,67.744
151108,67.432
151109,67.119
151110,66.806
151111,66.180
151112,65.867
151113,65.241
151114,64.772
151115,64.302
151116,63.833
151117,63.207
151118,62.581
151119,61.956
151120,61.486
151121,60.860
151122,60.391
151123,59.922
151124,59.609
151125,59.139
151126,58.670
151127,58.201
151128,57.888
151129,57.418
151130,57.262
151131,57.418
151132,58.044
151133,59.139
151134,60.860
151135,62.894
151136,65.085
151137,66.806
151138,68.370
151139,69.309
151140,70.091
151141,70.873
151142,71.969
151143,73.377
151144,74.785
151145,76.349
151146,77.757
151147,79.009
151148,79.948
151149,80.574
151150,81.043
151151,81.199
151152,81.043
151153,80.574
151154,79.635
151155,78.540
151156,77.132
151157,75.254
151158,73.377
151159,71.499
151160,69.935
151161,68.840
151162,67.901
151163,67.275
151164,66.649
151165,65.867
151166,64.928
151167,64.146
151168,63.207
151169,62.269
151170,61.486
151171,60.860
151172,60.235
151173,59.765
151174,59.139
151175,58.670
151176,58.044
151177,57.575
151178,57.106
151179,56.793
151180,56.480
151181,56.167
151182,55.854
151183,55.541
151184,55.228
151185,54.915
151186,54.759
151187,54.602
151188,54.289
151189,54.133
151190,53.977
151191,53.820
151192,53.664
151193,53.507
151194,53.351
151195,53.038
151196,52.725
151197,52.412
151198,52.099
151199,51.786
151200,51.473
151201,51.160
151202,50.691
151203,50.378
151204,50.065
151205,49.596
151206,49.283
151207,48.814
151208,48.344
151209,48.031
151210,47.718
151211,47.562
151212,47.405
151213,47.562
151214,47.875
151215,48.814
151216,50.535
151217,53.194
151218,56.793
151219,60.860
151220,64.459
151221,67.432
151222,69.778
151223,71.812
151224,73.690
151225,75.880
151226,78.696
151227,81.825
151228,85.111
151229,88.396
151230,91.525
151231,94.185
151232,96.532
151233,98.409
151234,99.817
151235,100.913
151236,101.382
151237,101.382
151238,101.069
151239,100.130
151240,98.879
151241,97.158
151242,94.967
151243,92.621
151244,89.804
151245,86.832
151246,84.016
151247,81.512
151248,79.635
151249,78.227
151250,77.132
151251,76.193
151252,74.941
151253,73.533
151254,72.125
151255,70.717
151256,69.622
151257,68.683
151258,67.901
151259,67.119
151260,66.493
151261,65.711
151262,64.928
151263,64.302
151264,63.677
151265,63.207
151266,62.738
151267,62.425
151268,62.112
151269,61.799
151270,61.486
151271,61.017
151272,60.860
151273,60.548
151274,60.235
151275,60.235
151276,59.922
151277,59.765
151278,59.609
151279,59.296
151280,58.983
151281,58.670
151282,58.357
151283,58.044
151284,57.888
151285,57.575
151286,57.262
151287,56.793
151288,56.480
151289,55.854
151290,55.385
151291,54.915
151292,54.446
151293,53.977
151294,53.664
151295,53.194
151296,53.038
151297,52.881
151298,52.725
151299,52.725
151300,52.881
151301,53.038
151302,53.507
151303,54.289
151304,55.854
151305,58.201
151306,60.860
151307,63.520
151308,65.867
151309,67.744
151310,69.309
151311,70.717
151312,72.282
151313,74.159
151314,76.193
151315,78.227
151316,80.261
151317,82.138
151318,83.703
151319,84.798
151320,85.893
151321,86.675
151322,87.301
151323,87.458
151324,87.301
151325,86.988
151326,86.049
151327,84.954
151328,83.546
151329,81.669
151330,79.635
151331,77.445
151332,75.567
151333,74.159
151334,73.064
151335,72.125
151336,71.343
151337,70.404
151338,69.309
151339,68.370
151340,67.275
151341,66.493
151342,65.867
151343,65.398
151344,64.928
151345,64.615
151346,64.146
151347,63.677
151348,63.207
151349,62.738
151350,62.269
151351,61.956
151352,61.799
151353,61.486
151354,61.330
151355,61.017
151356,60.704
151357,60.391
151358,60.235
151359,59.922
151360,59.922
151361,59.609
151362,59.609
151363,59.296
151364,59.139
151365,58.983
151366,58.670
151367,58.514
151368,58.201
151369,57.888
151370,57.418
151371,57.106
151372,56.636
151373,56.167
151374,55.854
151375,55.385
151376,54.915
151377,54.602
151378,54.289
151379,53.977
151380,53.664
151381,53.351
151382,53.038
151383,52.725
151384,52.568
151385,52.725
151386,53.507
151387,54.915
151388,57.262
151389,60.235
151390,63.677
151391,66.806
151392,69.465
151393,71.343
151394,72.751
151395,74.159
151396,75.724
151397,77.757
151398,80.417
151399,83.390
151400,86.519
151401,89.491
151402,92.308
151403,94.654
151404,96.532
151405,98.096
151406,99.192
151407,99.817
151408,99.817
151409,99.505
151410,98.879
151411,97.940
151412,96.688
151413,94.967
151414,93.090
151415,90.743
151416,88.240
151417,85.580
151418,83.233
151419,81.356
151420,79.948
151421,78.696
